#ID:	1
#type:	Perform parallel JV
#start_time:	16/04/2025 16.42.39
#
# Parameters
#Sample area:	0.25 cm²
#Comment:	  
#Resolution of the measurement unit:	10 (higher better/slower)
#start_voltage:	-0.2 V
#stop_voltage:	1.4 V
#Scan rate:	10 mV/s
#settling_time:	10 ms
#direction:	3 0=forward,1=backward,2=for- & backward,3=back- & forward
##Sample holder climate : temperature:	[21.486,21.627] °C
##Sample holder climate : relative humidity:	[38.921,38.428] %
##IR temperature [0]:	[21.33,23.33] °C
##Stage temperature:	[21.3819,21.4165] °C
##Light intensity:	[0,0] %
#
#voltage (V),current (mA)
1.08511,50.0781
1.08375,50.0427
1.08301,50.0505
1.08252,50.0572
1.0821,50.0578
1.08183,50.059
1.0816,50.0622
1.0814,50.0665
1.08123,50.0676
1.08109,50.0709
1.08099,50.0712
1.08087,50.0722
1.08076,50.0734
1.08068,50.0727
1.08058,50.0754
1.08047,50.0763
1.08036,50.0752
1.08028,50.0744
1.0802,50.0776
1.08013,50.077
1.08006,50.0809
1.07997,50.079
1.0799,50.079
1.07983,50.0791
1.07976,50.08
1.07967,50.0834
1.07962,50.0821
1.07954,50.0847
1.0795,50.0819
1.07944,50.0828
1.07937,50.082
1.07934,50.0843
1.07924,50.0816
1.07922,50.0838
1.07916,50.0836
1.07907,50.0861
1.07901,50.086
1.07898,50.0863
1.07893,50.0862
1.07889,50.0867
1.07882,50.0856
1.07878,50.0859
1.07873,50.0852
1.07866,50.0854
1.07862,50.0846
1.07862,50.0879
1.07855,50.0864
1.07849,50.0863
1.07845,50.0854
1.07841,50.0876
1.07837,50.089
1.07834,50.0879
1.07828,50.0829
1.07825,50.087
1.07825,50.0875
1.07816,50.0899
1.07812,50.0869
1.0781,50.0901
1.07806,50.091
1.07803,50.0908
1.07799,50.0896
1.07796,50.0891
1.07794,50.0899
1.07771,50.0423
1.07752,50.0021
1.07701,49.8649
1.07641,49.6869
1.07556,49.4695
1.07473,49.2485
1.07378,48.9829
1.07265,48.6763
1.07136,48.3223
1.06991,47.919
1.06829,47.4771
1.06662,47.02
1.06474,46.5132
1.05925,45.0394
1.05367,43.5521
1.04835,42.1333
1.04247,40.6242
1.03663,39.1323
1.03088,37.6921
1.02518,36.2922
1.01937,34.8952
1.01305,33.4284
1.00695,32.0344
1.0006,30.6241
0.99438,29.2745
0.987546,27.8495
0.98069,26.4491
0.973861,25.1084
0.966946,23.8009
0.959352,22.4202
0.951778,21.0933
0.94448,19.8692
0.93679,18.6382
0.928689,17.3978
0.920031,16.1523
0.911476,14.9852
0.902794,13.8687
0.894228,12.8371
0.884886,11.7903
0.875316,10.7859
0.868368,10.0957
0.862927,9.58441
0.858318,9.16725
0.858036,9.12345
0.857199,9.04093
0.855825,8.91228
0.853953,8.74958
0.851948,8.57849
0.849463,8.37583
0.846384,8.12686
0.843181,7.87929
0.839936,7.62842
0.835356,7.30386
0.831794,7.05538
0.826785,6.72374
0.822272,6.43349
0.81761,6.14784
0.812005,5.82183
0.806911,5.54272
0.800753,5.2202
0.795168,4.94404
0.789299,4.67022
0.783152,4.39928
0.776727,4.13465
0.771065,3.91073
0.76393,3.65006
0.757666,3.43347
0.752039,3.2498
0.745071,3.0361
0.738984,2.86001
0.732671,2.6867
0.725951,2.51367
0.720453,2.3818
0.713181,2.21205
0.707242,2.0826
0.700843,1.95235
0.696025,1.85798
0.689243,1.73086
0.684064,1.63907
0.678585,1.5475
0.671281,1.43119
0.667611,1.37384
0.659597,1.26067
0.655677,1.20381
0.649415,1.12203
0.645256,1.06812
0.63888,0.990563
0.634397,0.939785
0.62752,0.866381
0.622845,0.816535
0.61544,0.745916
0.613107,0.724198
0.605426,0.655341
0.600293,0.610988
0.594912,0.568216
0.589443,0.527943
0.586217,0.504027
0.577851,0.447673
0.575076,0.429217
0.568971,0.392524
0.562947,0.358419
0.55697,0.327241
0.553611,0.310821
0.547181,0.280007
0.540356,0.251963
0.537341,0.238724
0.533742,0.225591
0.5268,0.2008
0.519585,0.177257
0.512302,0.157043
0.512138,0.15607
0.504718,0.136922
0.496602,0.118678
0.496692,0.118638
0.488919,0.103366
0.484671,0.0957184
0.476569,0.0823707
0.472333,0.0757585
0.468077,0.0702715
0.463968,0.0647539
0.455422,0.0550574
0.455071,0.0548701
0.44666,0.0467081
0.442424,0.0430124
0.437832,0.0388952
0.428818,0.0327499
0.428713,0.0326883
0.419636,0.0270672
0.414765,0.024619
0.410527,0.0224199
0.405711,0.0207641
0.401026,0.0185748
0.396451,0.0167085
0.391856,0.0151676
0.38257,0.0122841
0.377697,0.0113522
0.372842,0.0102723
0.373413,0.00991485
0.363437,0.00816788
0.358929,0.00738388
0.354306,0.00663439
0.349773,0.00591443
0.34027,0.00465547
0.340227,0.00448287
0.335553,0.00428068
0.324967,0.00313514
0.319878,0.00285899
0.320217,0.00262721
0.310051,0.00207736
0.31042,0.0020749
0.299961,0.00154824
0.295378,0.00139784
0.294648,0.00110195
0.285386,0.00119665
0.285007,0.00100186
0.274971,0.0006542
0.270057,0.00063694
0.264738,0.000413563
0.264694,0.000519587
0.254295,0.000381509
0.249326,0.000508259
0.244306,0.000153201
0.244419,-7.85734E-5
0.234375,8.16959E-5
0.229307,0.000124613
0.224092,3.79409E-6
0.218849,-8.00391E-5
0.213966,0.000462411
0.213836,3.09166E-5
0.203859,-0.00015301
0.198968,-6.4245E-5
0.193825,4.4245E-5
0.188875,4.77107E-5
0.18378,-0.000169269
0.178517,-8.79018E-5
0.173585,-0.000196392
0.168596,-8.19705E-5
0.163588,-5.53432E-6
0.158738,3.8848E-5
0.153439,-2.03284E-5
0.148758,-5.3848E-5
0.143121,-2.42598E-5
0.133264,-3.90539E-5
0.133323,0.00017546
0.128406,0.000132078
0.123127,0.000215911
0.118585,7.29018E-5
0.108363,-5.1848E-5
0.108475,4.67793E-5
0.103217,0.000152804
0.0934084,3.44509E-5
0.0934657,-0.000310745
0.0834663,-0.000275225
0.08322,-0.000156872
0.0785411,-0.000142078
0.0684547,-0.000256965
0.0684339,5.61764E-5
0.0584807,-5.97107E-5
0.0585802,-0.000178063
0.0480239,-2.41911E-5
0.04292,0.000205117
0.0430711,-0.000164735
0.0328856,-0.000167201
0.0330659,7.19705E-5
0.0230067,-9.22302E-5
0.023007,2.61225E-5
0.0129372,1.46568E-6
0.00766442,8.62989E-5
0.00793191,0.000110956
-0.00196786,-5.67107E-5
-0.00675057,0.000123284
-0.0114937,-6.06421E-5
-0.0164384,0.000269759
-0.0215225,9.22302E-5
-0.0261175,5.03136E-5
-0.0310015,-6.95048E-5
-0.0358202,0.000112956
-0.0409613,-6.21077E-5
-0.0456282,-0.0004147
-0.0551337,-3.64509E-5
-0.0551349,-4.87793E-5
-0.0597533,4.24509E-5
-0.0694504,-0.000144941
-0.069484,5.23136E-5
-0.0789663,-0.000331333
-0.0837866,-0.000109421
-0.0839158,5.8245E-5
-0.0931427,9.62302E-5
-0.0982807,-0.000266225
-0.102971,-8.86959E-5
-0.107875,0.000135681
-0.112619,-2.35882E-5
-0.122436,1.58627E-5
-0.122518,0.000255034
-0.12723,-1.86568E-5
-0.132173,0.000177132
-0.141589,5.87793E-5
-0.141935,0.000127818
-0.151443,0.000118956
-0.151541,-0.000179392
-0.161289,0.000200323
-0.161468,-5.36421E-5
-0.171078,0.000213652
-0.175428,1.6397E-5
-0.180276,-0.000109353
-0.180421,3.85882E-5
-0.190151,0.000102696
-0.199832,-4.67107E-5
-0.200145,-8.61616E-5
NaN,NaN
-0.199907,-9.60243E-5
-0.194963,9.13675E-5
-0.190093,-3.7848E-5
-0.180504,5.83136E-5
-0.180542,-0.000114284
-0.175562,2.37941E-5
-0.170604,-6.59705E-5
-0.166084,0.000180598
-0.156125,8.69018E-5
-0.156392,9.42989E-5
-0.151423,0.00011649
-0.141508,1.4397E-5
-0.141689,4.53432E-6
-0.132218,7.60391E-5
-0.131681,2.42598E-5
-0.122222,0.000183529
-0.122493,1.09314E-5
-0.112784,0.000139147
-0.112536,2.81911E-5
-0.103065,0.000212117
-0.102876,9.62302E-5
-0.0932484,-0.000197186
-0.0932907,6.86361E-8
-0.0837001,5.8245E-5
-0.0791003,0.000319607
-0.0741752,-0.000217911
-0.0691,0.000118887
-0.0646238,-0.000174529
-0.0551531,0.00020272
-0.0551636,-2.16568E-5
-0.0499724,0.0002535
-0.0453453,-0.000190323
-0.0357009,0.000103093
-0.0355926,9.32302E-5
-0.0260087,1.08627E-5
-0.0212483,-5.81764E-5
-0.0215799,7.49705E-5
-0.0116177,5.5245E-5
-0.00686929,0.00019972
-0.00177268,0.000133147
0.00343286,6.65734E-5
0.00782806,0.000138078
0.0131647,0.000201186
0.0182885,-3.05882E-5
0.0230506,3.35195E-5
0.0281476,5.3245E-5
0.0334283,0.000133613
0.0432391,0.000207583
0.0433317,9.66273E-5
0.0482771,-4.46568E-6
0.0537155,8.82302E-5
0.0634925,0.00028795
0.0636251,7.59018E-5
0.0686005,-0.000296416
0.07389,-0.000243171
0.0835698,-0.00012975
0.0835065,0.000166132
0.0888542,-0.000218514
0.0987908,-0.000303348
0.098488,-0.000175132
0.108329,-3.21225E-5
0.108402,-0.000189926
0.118518,-0.000139147
0.118651,5.31764E-5
0.128467,0.00017646
0.133341,-0.000226446
0.133383,0.000123681
0.143672,-7E-6
0.143351,1.76568E-5
0.153893,0.000194186
0.158702,-0.00024224
0.163609,9.25977E-6
0.163654,-8.19705E-5
0.174024,-6.3245E-5
0.179134,6.25048E-5
0.183844,0.000178392
0.189005,0.000166063
0.194294,-2.47941E-5
0.194221,4.17793E-5
0.204032,8.61616E-5
0.209122,-0.000185063
0.214123,-0.000173735
0.219488,-0.000260034
0.224285,-7.51077E-5
0.229523,-9.82989E-5
0.234601,9.40243E-5
0.234821,0.000140872
0.244346,0.000338127
0.254413,0.000310004
0.254509,5.11077E-5
0.254954,0.000290279
0.265333,0.000475205
0.275116,0.000518587
0.27449,0.000501328
0.280086,0.000651734
0.285176,0.000777484
0.289838,0.00111428
0.295116,0.00127702
0.299949,0.00131647
0.305098,0.00146687
0.31499,0.0021612
0.31517,0.00234859
0.320126,0.00263954
0.325306,0.00294528
0.335641,0.00370618
0.335451,0.00376782
0.340483,0.00428068
0.345001,0.00471464
0.354848,0.00624237
0.354789,0.00612155
0.364181,0.00748989
0.369062,0.00815062
0.373551,0.00938973
0.373489,0.00934041
0.382971,0.0113694
0.392276,0.0141766
0.392214,0.0142259
0.396713,0.0155276
0.401677,0.016886
0.411162,0.0207779
0.411138,0.0205314
0.420529,0.0249371
0.424909,0.0277008
0.429473,0.0304882
0.429444,0.0304512
0.43858,0.0360551
0.447551,0.0426993
0.447468,0.0431875
0.455934,0.0507997
0.456225,0.050955
0.464838,0.0602964
0.468978,0.0650695
0.477637,0.0762096
0.477305,0.0758867
0.485796,0.0887807
0.489787,0.0956139
0.494139,0.102944
0.501779,0.119104
0.506001,0.127546
0.509897,0.13731
0.513765,0.147231
0.521045,0.166913
0.524637,0.177842
0.528405,0.1881
0.53563,0.212613
0.542398,0.238007
0.545777,0.25201
0.549123,0.265749
0.555576,0.294577
0.558869,0.308817
0.56538,0.342046
0.571666,0.374926
0.574397,0.391789
0.58065,0.42806
0.586315,0.465512
0.588868,0.483751
0.594841,0.524326
0.600298,0.566189
0.605642,0.607931
0.610988,0.652174
0.613584,0.675595
0.621104,0.743858
0.623632,0.766532
0.630676,0.836812
0.635473,0.885492
0.640007,0.93675
0.644487,0.987451
0.648818,1.03931
0.653299,1.09356
0.659351,1.173
0.663516,1.22857
0.669541,1.31247
0.673452,1.36828
0.679098,1.45509
0.682665,1.51324
0.688125,1.60424
0.693472,1.69592
0.696914,1.75608
0.701943,1.85063
0.706828,1.94468
0.711547,2.04028
0.716176,2.13717
0.722277,2.27383
0.726473,2.37427
0.730573,2.47206
0.736119,2.61188
0.739983,2.71362
0.743786,2.8174
0.748758,2.95724
0.7536,3.10001
0.758198,3.24208
0.763785,3.42306
0.768055,3.56904
0.772262,3.71659
0.776211,3.86558
0.781112,4.05295
0.785756,4.24173
0.790328,4.43261
0.794738,4.62666
0.798943,4.82252
0.803055,5.01753
0.807038,5.21767
0.811626,5.45536
0.81608,5.69673
0.82032,5.93818
0.824523,6.18231
0.82921,6.4705
0.833046,6.71686
0.83741,7.00667
0.841592,7.2975
0.845545,7.58323
0.849959,7.91284
0.853666,8.20233
0.857812,8.53715
0.861806,8.86657
0.865631,9.19699
0.869845,9.57592
0.873485,9.91558
0.877543,10.3031
0.881467,10.6895
0.885703,11.1228
0.889387,11.5134
0.893412,11.9526
0.897667,12.4359
0.901423,12.8714
0.905317,13.3408
0.909176,13.8191
0.912891,14.2897
0.916505,14.7612
0.920359,15.2789
0.931279,16.7907
0.940911,18.2301
0.949488,19.5966
0.957318,20.9117
0.965066,22.2781
0.972316,23.6125
0.978936,24.8792
0.985216,26.1324
0.991407,27.3971
0.997458,28.6747
1.00339,29.9619
1.0087,31.1559
1.01386,32.3456
1.01924,33.6177
1.0244,34.8558
1.02936,36.0779
1.03423,37.3079
1.03885,38.4937
1.04371,39.751
1.04863,41.0588
1.05326,42.3235
1.05781,43.5689
1.06216,44.7871
1.0667,46.0758
1.07135,47.4104
1.07559,48.6592
1.07978,49.9037
1.07987,49.9946
1.07972,49.9939
1.07962,49.9956
1.07948,49.9956
1.07938,49.9945
1.07929,50.0001
1.07919,49.9956
1.07917,49.9958
1.07907,49.9968
1.07899,49.9939
1.07894,49.9955
1.07888,49.9999
1.07883,49.9964
1.07874,49.9965
1.0787,49.9981
1.07866,49.999
1.07859,49.9991
1.07858,50.0013
1.07848,50.0019
1.07847,50.0015
1.07841,50.0023
1.07834,50.0016
1.07829,49.9986
1.07826,50.002
1.07821,50.0022
1.07813,50.0008
1.07808,50.0013
1.07804,50.0004
1.07802,50.0001
1.07797,50.0016
1.07793,49.9999
1.0779,50.0014
1.07785,50.0012
1.07783,50.0015
1.07774,50.0021
1.07774,50.0036
1.07772,50.0084
1.07766,50.003
1.07765,50.0043
1.07756,50.0035
1.07753,50.0036
1.07753,50.0049
1.07747,50.0005
1.07746,50.0041
1.07738,50.0029
1.07741,50.0057
1.07736,50.007
1.07732,50.0013
1.07729,50.0041
1.07726,50.0027
1.0772,50.0036
1.07718,50.0013
1.07719,50.0071
1.07714,50.0061
1.07712,50.0073
1.07707,50.0061
NaN,NaN
